Time TotalEnergy KineticEnergy PotentialEnergy
0.01 455.646 13.9595 441.686
0.02 459.762 16.4533 443.309
0.03 466.981 21.5969 445.384
0.04 474.709 26.9921 447.717
0.05 482.889 32.746 450.143
0.06 492.757 40.1259 452.631
0.07 503.263 48.0899 455.174
0.08 514.449 56.6569 457.792
0.09 527.567 67.0937 460.474
0.1 541.274 78.0635 463.211
0.11 555.841 89.7941 466.046
0.12 570.363 101.299 469.065
0.13 586.413 114.095 472.319
0.14 602.739 126.935 475.803
0.15 618.964 139.384 479.58
0.16 635.646 151.933 483.713
0.17 653.524 165.387 488.138
0.18 670.746 177.872 492.874
0.19 689.325 191.281 498.044
0.2 707.719 204.117 503.602
0.21 725.191 215.514 509.676
0.22 742.45 226.246 516.205
0.23 760.6 237.377 523.223
0.24 778.913 248.279 530.634
0.25 797.269 258.809 538.46
0.26 815.59 268.885 546.705
0.27 831.552 276.136 555.416
0.28 847.432 282.774 564.658
0.29 863.395 289.019 574.375
0.3 877.593 292.992 584.601
0.31 893.539 298.218 595.321
0.32 905.573 299.231 606.342
0.33 916.802 299.195 617.607
0.34 927.968 298.935 629.033
0.35 940.463 299.627 640.836
0.36 950.485 297.772 652.713
0.37 959.299 294.685 664.614
0.38 966.132 289.711 676.422
0.39 970.918 282.844 688.074
0.4 981.599 282.059 699.54
0.41 988.508 277.565 710.944
0.42 994.31 271.996 722.314
0.43 1000.82 267.318 733.501
0.44 1004.7 260.188 744.514
0.45 1013.46 258.052 755.407
0.46 1019.28 253.138 766.146
0.47 1025.63 248.993 776.636
0.48 1029.38 242.523 786.857
0.49 1031.55 234.653 796.901
0.5 1035.91 229.24 806.671
0.51 1040.49 224.334 816.159
0.52 1045.97 220.573 825.398
0.53 1049.62 215.281 834.343
0.54 1052.63 209.514 843.115
0.55 1055.94 204.221 851.718
0.56 1058.53 198.428 860.104
0.57 1061.01 192.711 868.296
0.58 1063.15 186.911 876.236
0.59 1067.35 183.388 883.963
0.6 1071.28 179.783 891.5
0.61 1073.75 174.823 898.93
0.62 1075.76 169.6 906.164
0.63 1080.56 167.267 913.293
0.64 1085.14 164.957 920.179
0.65 1087.98 161.18 926.799
0.66 1088.43 155.33 933.101
0.67 1091.74 152.745 938.996
0.68 1094.88 150.273 944.607
0.69 1097.74 147.717 950.021
0.7 1097.04 141.869 955.172
0.71 1100.07 139.951 960.118
0.72 1100.01 135.131 964.882
0.73 1102.87 133.471 969.403
0.74 1104.82 131.079 973.739
0.75 1105.39 127.488 977.901
0.76 1109.27 127.385 981.887
0.77 1113.03 127.346 985.682
0.78 1114.44 125.091 989.35
0.79 1115.32 122.502 992.815
0.8 1118.22 122.068 996.151
0.81 1119.61 120.336 999.277
0.82 1121.48 119.282 1002.2
0.83 1123.23 118.31 1004.92
0.84 1124.26 116.852 1007.41
0.85 1122.83 113.231 1009.6
0.86 1123.22 111.667 1011.55
0.87 1124.54 111.214 1013.33
0.88 1126.67 111.683 1014.99
0.89 1123.37 106.906 1016.46
0.9 1126.28 108.576 1017.7
0.91 1127 108.206 1018.79
0.92 1126.72 106.945 1019.78
0.93 1124.81 104.235 1020.58
0.94 1127.35 106.11 1021.24
0.95 1127.63 105.869 1021.76
0.96 1125.56 103.396 1022.17
0.97 1128 105.503 1022.49
0.98 1129.09 106.397 1022.69
0.99 1126.55 103.818 1022.73
1 1126.54 103.911 1022.62
1.01 1125.14 102.774 1022.36
1.02 1124.33 102.397 1021.93
1.03 1124.54 103.205 1021.33
1.04 1122.37 101.792 1020.57
1.05 1120.25 100.577 1019.68
1.06 1118.75 100.066 1018.68
1.07 1117.84 100.328 1017.51
1.08 1115.65 99.4423 1016.21
1.09 1112.67 97.9064 1014.77
1.1 1110.51 97.2552 1013.25
1.11 1107.49 95.899 1011.59
1.12 1103.88 94.0728 1009.8
1.13 1101.74 93.7479 1007.99
1.14 1098.24 92.1833 1006.06
1.15 1094.63 90.5616 1004.07
1.16 1090.77 88.7866 1001.99
1.17 1089.06 89.1961 999.866
1.18 1087.25 89.4957 997.753
1.19 1081.59 85.9567 995.632
1.2 1078.94 85.4661 993.471
1.21 1075.49 84.2103 991.285
1.22 1073.66 84.5294 989.127
1.23 1071.37 84.4383 986.933
1.24 1067.12 82.4491 984.671
1.25 1064.19 81.7714 982.415
1.26 1061.55 81.3621 980.189
1.27 1057.06 79.0878 977.974
1.28 1052.25 76.4288 975.817
1.29 1049.51 75.8841 973.623
1.3 1046.71 75.3093 971.4
1.31 1044.19 75.0671 969.123
1.32 1041.18 74.3499 966.832
1.33 1036.7 72.1943 964.501
1.34 1035.61 73.4373 962.173
1.35 1030.38 70.4124 959.966
1.36 1027.33 69.4898 957.844
1.37 1025.19 69.4063 955.787
1.38 1022.33 68.5021 953.828
1.39 1018.76 66.8423 951.918
1.4 1015.72 65.6708 950.054
1.41 1012.83 64.6032 948.225
1.42 1009.47 63.1012 946.368
1.43 1007.36 62.7902 944.569
1.44 1003.52 60.6786 942.843
1.45 1001.34 60.2167 941.127
1.46 996.953 57.4783 939.475
1.47 995.618 57.75 937.868
1.48 992.059 55.71 936.349
1.49 990.133 55.2471 934.886
1.5 986.783 53.2461 933.537
1.51 984.231 51.9845 932.246
1.52 981.474 50.4536 931.02
1.53 979.362 49.5348 929.827
1.54 977.488 48.8359 928.652
1.55 975.143 47.6744 927.469
1.56 974.051 47.6859 926.365
1.57 970.952 45.6207 925.331
1.58 969.5 45.1641 924.336
1.59 968.113 44.6919 923.421
1.6 966.322 43.7722 922.549
1.61 965.043 43.3416 921.702
1.62 963.112 42.2432 920.869
1.63 961.906 41.8339 920.072
1.64 959.939 40.6003 919.339
1.65 957.781 39.1233 918.658
1.66 956.891 38.8271 918.063
1.67 954.929 37.3976 917.531
1.68 953.788 36.7589 917.029
1.69 952.25 35.7216 916.528
1.7 950.96 34.8566 916.103
1.71 950.071 34.3336 915.737
1.72 948.446 33.0528 915.393
1.73 947.363 32.2179 915.146
1.74 945.966 31.0091 914.957
1.75 945.378 30.5729 914.806
1.76 944.655 29.9504 914.705
1.77 943.837 29.1506 914.686
1.78 942.911 28.2329 914.678
1.79 942.324 27.6392 914.685
1.8 942.502 27.7658 914.736
1.81 941.389 26.5575 914.831
1.82 940.944 26.0367 914.907
1.83 940.554 25.5574 914.997
1.84 939.944 24.8489 915.095
1.85 939.422 24.182 915.24
1.86 938.505 23.0873 915.418
1.87 938.605 22.9856 915.619
1.88 938.098 22.2806 915.817
1.89 938.01 21.9837 916.026
1.9 937.546 21.3152 916.231
1.91 937.304 20.8459 916.458
1.92 936.884 20.1076 916.777
1.93 936.459 19.3328 917.126
1.94 936.342 18.838 917.504
1.95 936.475 18.5679 917.907
1.96 936.285 17.9879 918.297
1.97 936.739 18.0655 918.674
1.98 936.509 17.4835 919.026
1.99 936.375 16.9574 919.418
2 936.139 16.2933 919.846
2.01 936.308 16.0238 920.285
2.02 936.61 15.8766 920.734
2.03 936.712 15.5127 921.2
2.04 936.89 15.1983 921.692
2.05 936.529 14.3421 922.187
2.06 936.483 13.8106 922.673
2.07 936.72 13.5703 923.149
2.08 936.669 13.0267 923.642
2.09 936.728 12.5825 924.145
2.1 937.135 12.4674 924.668
2.11 937.44 12.2495 925.191
2.12 937.953 12.2023 925.75
2.13 937.977 11.6739 926.303
2.14 938.442 11.5877 926.854
2.15 938.708 11.3029 927.405
2.16 938.771 10.8057 927.966
2.17 939.182 10.636 928.546
2.18 939.335 10.22 929.115
2.19 939.607 9.95444 929.653
2.2 939.751 9.57193 930.179
2.21 940.144 9.41748 930.727
2.22 940.328 9.07458 931.254
2.23 940.466 8.72215 931.744
2.24 940.603 8.39221 932.211
2.25 941.044 8.37093 932.673
2.26 941.188 8.0638 933.124
2.27 941.382 7.81691 933.565
2.28 941.744 7.75006 933.994
2.29 942.1 7.67323 934.427
2.3 942.279 7.46188 934.817
2.31 942.46 7.30163 935.159
2.32 942.562 7.06969 935.493
2.33 942.834 7.0229 935.811
2.34 942.908 6.77401 936.134
2.35 942.881 6.41487 936.466
2.36 943.065 6.25908 936.806
2.37 943.288 6.1214 937.166
2.38 943.44 5.89639 937.544
2.39 943.672 5.75476 937.918
2.4 943.891 5.61188 938.279
2.41 944.072 5.45524 938.616
2.42 944.332 5.40614 938.926
2.43 944.393 5.17817 939.215
2.44 944.598 5.11787 939.481
2.45 944.701 4.97573 939.726
2.46 944.82 4.83689 939.983
2.47 944.943 4.6762 940.267
2.48 945.091 4.55088 940.54
2.49 945.23 4.42583 940.804
2.5 945.369 4.3057 941.064
2.51 945.57 4.23654 941.333
2.52 945.701 4.12973 941.571
2.53 945.821 4.00988 941.812
2.54 945.974 3.92328 942.051
2.55 946.093 3.81436 942.278
2.56 946.182 3.67535 942.507
2.57 946.268 3.52552 942.743
2.58 946.376 3.41874 942.957
2.59 946.533 3.36375 943.17
2.6 946.695 3.30951 943.385
2.61 946.85 3.24512 943.605
2.62 946.994 3.15948 943.835
2.63 947.195 3.14151 944.053
2.64 947.357 3.08839 944.269
2.65 947.512 3.02282 944.489
2.66 947.65 2.93383 944.716
2.67 947.748 2.81119 944.936
2.68 947.838 2.71 945.128
2.69 947.983 2.69772 945.286
2.7 948.034 2.61897 945.415
2.71 948.089 2.55315 945.535
2.72 948.205 2.55116 945.653
2.73 948.259 2.49804 945.761
2.74 948.342 2.48562 945.856
2.75 948.367 2.42572 945.941
2.76 948.453 2.44853 946.005
2.77 948.418 2.37207 946.046
2.78 948.369 2.29395 946.075
2.79 948.382 2.28685 946.095
2.8 948.3 2.18628 946.114
2.81 948.266 2.12388 946.142
2.82 948.25 2.08389 946.166
2.83 948.216 2.02079 946.195
2.84 948.208 1.985 946.223
2.85 948.201 1.95499 946.246
2.86 948.181 1.91075 946.27
2.87 948.17 1.87634 946.293
2.88 948.158 1.84757 946.311
2.89 948.133 1.81518 946.318
2.9 948.115 1.7957 946.319
2.91 948.092 1.77227 946.319
2.92 948.082 1.75808 946.324
2.93 948.045 1.71631 946.328
2.94 947.977 1.65039 946.327
2.95 947.947 1.62674 946.321
2.96 947.878 1.5779 946.301
2.97 947.847 1.57674 946.271
2.98 947.801 1.56092 946.24
2.99 947.757 1.54214 946.215
3 947.715 1.52476 946.19
3.01 947.633 1.47934 946.153
3.02 947.547 1.4402 946.107
3.03 947.468 1.41599 946.052
3.04 947.339 1.35049 945.988
3.05 947.258 1.33895 945.919
3.06 947.173 1.32265 945.85
3.07 947.094 1.31076 945.784
3.08 947.016 1.29839 945.717
3.09 946.97 1.31499 945.655
3.1 946.905 1.31036 945.594
3.11 946.839 1.29589 945.543
3.12 946.75 1.25355 945.497
3.13 946.673 1.2198 945.453
3.14 946.611 1.18975 945.421
3.15 946.568 1.16768 945.4
3.16 946.538 1.15402 945.384
3.17 946.51 1.13944 945.37
3.18 946.481 1.12277 945.358
3.19 946.46 1.10732 945.352
3.2 946.449 1.08769 945.361
3.21 946.434 1.06492 945.369
3.22 946.421 1.0447 945.376
3.23 946.412 1.02158 945.39
3.24 946.428 1.01265 945.415
3.25 946.436 0.991728 945.444
3.26 946.461 0.979158 945.482
3.27 946.467 0.939141 945.528
3.28 946.501 0.926699 945.575
3.29 946.541 0.91582 945.625
3.3 946.581 0.904344 945.677
3.31 946.612 0.887524 945.725
3.32 946.637 0.872688 945.764
3.33 946.665 0.86773 945.798
3.34 946.694 0.868317 945.826
3.35 946.707 0.858086 945.849
3.36 946.72 0.85032 945.87
3.37 946.717 0.822689 945.894
3.38 946.738 0.809356 945.929
3.39 946.754 0.793207 945.961
3.4 946.776 0.784615 945.991
3.41 946.795 0.770526 946.024
3.42 946.829 0.772907 946.056
3.43 946.842 0.762201 946.08
3.44 946.857 0.75672 946.1
3.45 946.883 0.763695 946.119
3.46 946.88 0.753386 946.127
3.47 946.868 0.738421 946.129
3.48 946.851 0.715271 946.136
3.49 946.839 0.699019 946.14
3.5 946.836 0.690108 946.146
3.51 946.843 0.683506 946.159
3.52 946.85 0.680257 946.17
3.53 946.863 0.681242 946.182
3.54 946.871 0.67647 946.194
3.55 946.864 0.651744 946.212
3.56 946.863 0.637249 946.226
3.57 946.865 0.626469 946.238
3.58 946.886 0.630867 946.255
3.59 946.895 0.622833 946.272
3.6 946.891 0.608366 946.282
3.61 946.882 0.589791 946.292
3.62 946.869 0.57224 946.297
3.63 946.863 0.565365 946.298
3.64 946.861 0.563493 946.297
3.65 946.85 0.553917 946.296
3.66 946.838 0.543576 946.295
3.67 946.827 0.528327 946.299
3.68 946.82 0.51567 946.304
3.69 946.816 0.509029 946.307
3.7 946.82 0.514522 946.306
3.71 946.81 0.510921 946.299
3.72 946.803 0.514421 946.288
3.73 946.781 0.509776 946.272
3.74 946.755 0.50516 946.25
3.75 946.715 0.490664 946.224
3.76 946.673 0.478853 946.194
3.77 946.633 0.473929 946.159
3.78 946.591 0.468638 946.123
3.79 946.547 0.462841 946.084
3.8 946.501 0.455124 946.046
3.81 946.46 0.44739 946.012
3.82 946.432 0.448822 945.983
3.83 946.399 0.442985 945.956
3.84 946.371 0.440915 945.93
3.85 946.344 0.437738 945.906
3.86 946.31 0.421897 945.888
3.87 946.28 0.405243 945.875
3.88 946.267 0.398784 945.868
3.89 946.269 0.395016 945.874
3.9 946.277 0.390736 945.887
3.91 946.297 0.395437 945.902
3.92 946.321 0.400489 945.92
3.93 946.337 0.395307 945.942
3.94 946.348 0.385428 945.962
3.95 946.345 0.369842 945.975
3.96 946.344 0.35955 945.984
3.97 946.35 0.356534 945.994
3.98 946.362 0.359626 946.002
3.99 946.366 0.357654 946.008
