Time TotalEnergy KineticEnergy PotentialEnergy
0.01 455.646 13.9595 441.686
0.02 459.762 16.4533 443.309
0.03 466.981 21.597  445.384
0.04 474.709 26.9923 447.717
0.05 482.888 32.7451 450.143
0.06 492.757 40.1264 452.631
0.07 503.266 48.0926 455.173
0.08 514.439 56.6464 457.793
0.09 527.557 67.0816 460.475
0.1 541.299 78.0855  463.214
0.11 555.791 89.7488 466.042
0.12 570.363 101.295 469.068
0.13 586.182 113.856 472.326
0.14 602.83 127.02   475.81
0.15 618.868 139.297 479.571
0.16 635.847 152.198 483.649
0.17 652.964 164.873 488.091
0.18 670.552 177.684 492.869
0.19 687.952 189.934 498.018
0.2 705.521 201.953  503.568
0.21 723.38 213.858  509.523
0.22 740.963 225.002 515.961
0.23 761.074 238.1   522.974
0.24 778.867 248.446 530.422
0.25 796.695 258.41  538.285
0.26 815.502 268.921 546.581
0.27 831.858 276.507 555.351
0.28 848.001 283.438 564.563
0.29 862.73 288.548  574.182
0.3 877.252 292.919  584.333
0.31 892.293 297.287 595.006
0.32 904.847 298.755 606.092
0.33 915.34 297.891  617.449
0.34 928.489 299.499 628.99
0.35 939.31 298.703  640.607
0.36 946.922 294.63  652.292
0.37 957.587 293.539 664.048
0.38 965.96 290.144  675.816
0.39 973.521 285.826 687.695
0.4 983.608 284.128  699.48
0.41 987.435 276.279 711.156
0.42 993.797 271.197 722.599
0.43 999.734 265.83  733.904
0.44 1007 261.976    745.028
0.45 1013.95 257.971 755.979
0.46 1019.62 252.952 766.669
0.47 1022.55 245.456 777.092
0.48 1028.78 241.436 787.347
0.49 1034.06 236.641 797.42
0.5 1039.43 232.177  807.251
0.51 1042.22 225.433 816.788
0.52 1045.66 219.623 826.038
0.53 1047.54 212.518 835.025
0.54 1051.34 207.534 843.811
0.55 1054.87 202.43  852.443
0.56 1059.11 198.214 860.899
0.57 1064.42 195.229 869.189
0.58 1069.58 192.299 877.285
0.59 1070.52 185.268 885.253
0.6 1072.84 179.781  893.06
0.61 1077.12 176.362 900.758
0.62 1083.53 175.251 908.276
0.63 1083.15 167.639 915.511
0.64 1086.53 163.971 922.559
0.65 1089.65 160.258 929.395
0.66 1091.95 155.929 936.018
0.67 1093.36 150.991 942.372
0.68 1097.16 148.777 948.387
0.69 1099.17 145.055 954.116
0.7 1102.78 143.156  959.626
0.71 1104.93 140.002 964.929
0.72 1106.06 136.056 970.005
0.73 1107.99 133.108 974.886
0.74 1111.01 131.45  979.56
0.75 1112.57 128.483 984.088
0.76 1113.22 124.761 988.455
0.77 1117.49 124.924 992.565
0.78 1119.74 123.239 996.497
0.79 1123.46 123.236 1000.22
0.8 1122.95 119.166  1003.79
0.81 1125.75 118.559 1007.19
0.82 1127.73 117.369 1010.36
0.83 1129.25 115.948 1013.3
0.84 1129.9 113.81   1016.09
0.85 1133.49 114.768 1018.72
0.86 1135.62 114.473 1021.15
0.87 1136.13 112.762 1023.37
0.88 1137.29 111.82  1025.47
0.89 1138.75 111.4   1027.35
0.9 1139 109.994     1029.01
0.91 1141.37 110.85  1030.52
0.92 1143.7 111.879  1031.82
0.93 1142.9 110.044  1032.86
0.94 1144.19 110.536 1033.65
0.95 1144.47 110.247 1034.22
0.96 1142 107.305    1034.69
0.97 1141.21 106.191 1035.01
0.98 1142.15 106.984 1035.17
0.99 1140.89 105.664 1035.23
1 1138.35 103.16     1035.19
1.01 1139.91 104.892 1035.02
1.02 1138.78 104.122 1034.65
1.03 1137.71 103.6   1034.11
1.04 1136.63 103.243 1033.39
1.05 1133.63 101.097 1032.53
1.06 1131.83 100.334 1031.5
1.07 1129.95 99.6324 1030.32
1.08 1128.16 99.1989 1028.96
1.09 1126.1 98.6405  1027.46
1.1 1122.8 96.9817   1025.82
1.11 1121.48 97.439  1024.04
1.12 1117.56 95.3687 1022.19
1.13 1115.92 95.6323 1020.29
1.14 1113.86 95.546  1018.31
1.15 1109.62 93.388  1016.24
1.16 1106.6 92.476   1014.12
1.17 1103.05 91.1221 1011.93
1.18 1102.27 92.5673 1009.71
1.19 1097.46 89.9768 1007.49
1.2 1094.16 88.9297  1005.23
1.21 1092.26 89.3436 1002.92
1.22 1087.13 86.5517 1000.57
1.23 1084.57 86.3931 998.177
1.24 1081.54 85.7794 995.759
1.25 1077.55 84.247  993.304
1.26 1075.39 84.5805 990.808
1.27 1070.65 82.3319 988.321
1.28 1069.52 83.7331 985.784
1.29 1064.28 81.1324 983.148
1.3 1061.05 80.5837  980.464
1.31 1056.43 78.6769 977.755
1.32 1052.96 77.9017 975.056
1.33 1049.81 77.4547 972.355
1.34 1046.84 77.1997 969.645
1.35 1041.14 74.1754 966.964
1.36 1036.79 72.4998 964.293
1.37 1034.39 72.6624 961.726
1.38 1031.36 72.1442 959.211
1.39 1028.01 71.2666 956.742
1.4 1022.65 68.384   954.262
1.41 1020.6 68.7898  951.806
1.42 1017.4 67.9929  949.411
1.43 1013.6 66.5275  947.076
1.44 1009.48 64.665  944.816
1.45 1005.72 63.0334 942.684
1.46 1003.37 62.7003 940.672
1.47 999.517 60.8091 938.708
1.48 996.369 59.5464 936.822
1.49 993.967 58.9701 934.997
1.5 990.339 57.1011  933.238
1.51 988.104 56.6134 931.491
1.52 984.205 54.4249 929.78
1.53 982.749 54.628  928.121
1.54 978.75 52.2093  926.541
1.55 975.827 50.7703 925.057
1.56 973.883 50.2349 923.648
1.57 971.529 49.126  922.403
1.58 968.924 47.6311 921.293
1.59 967.386 47.1553 920.231
1.6 964.958 45.7788  919.18
1.61 962.383 44.186  918.197
1.62 960.403 43.0735 917.33
1.63 959.06 42.4789  916.581
1.64 957.417 41.4898 915.927
1.65 955.602 40.2478 915.354
1.66 954.804 39.9121 914.891
1.67 953.196 38.7044 914.492
1.68 951.8 37.7244   914.076
1.69 951.277 37.5848 913.692
1.7 949.403 36.0341  913.369
1.71 948.896 35.8092 913.086
1.72 947.12 34.2947  912.826
1.73 946.699 34.1178 912.581
1.74 945.576 33.1672 912.409
1.75 944.899 32.5868 912.312
1.76 944.896 32.6411 912.255
1.77 943.359 31.1306 912.228
1.78 942.767 30.5228 912.244
1.79 942.387 30.1422 912.244
1.8 941.729 29.4071  912.322
1.81 940.945 28.5122 912.433
1.82 940.012 27.4085 912.604
1.83 939.533 26.7153 912.817
1.84 939.518 26.456  913.062
1.85 938.775 25.4012 913.373
1.86 938.476 24.7488 913.727
1.87 938.917 24.8217 914.095
1.88 938.384 23.8746 914.509
1.89 938.31 23.3116  914.998
1.9 938.313 22.7765  915.537
1.91 938.623 22.5144 916.108
1.92 938.474 21.8111 916.663
1.93 938.453 21.2496 917.204
1.94 938.768 20.9716 917.796
1.95 938.724 20.3057 918.418
1.96 938.616 19.5903 919.026
1.97 938.722 19.0635 919.659
1.98 938.684 18.3546 920.33
1.99 939.074 18.0561 921.018
2 939.007 17.3121 921.695
2.01 939.105 16.717 922.388
2.02 939.638 16.5298 923.109
2.03 939.731 15.9127 923.819
2.04 940.013 15.4962 924.517
2.05 940.505 15.2885 925.216
2.06 941.005 15.1003 925.905
2.07 941.353 14.7725 926.581
2.08 941.391 14.1736 927.218
2.09 941.89 14.0594 927.831
2.1 942.194 13.7466 928.448
2.11 942.215 13.1874 929.028
2.12 942.553 12.9646 929.589
2.13 942.717 12.5984 930.119
2.14 943.035 12.4008 930.634
2.15 943.224 12.0591 931.165
2.16 943.388 11.7135 931.675
2.17 943.597 11.3983 932.198
2.18 943.765 11.0647 932.7
2.19 944.014 10.8203 933.193
2.2 944.328 10.595 933.733
2.21 944.508 10.2109 934.297
2.22 944.643 9.7833 934.86
2.23 944.899 9.46982 935.429
2.24 945.056 9.05107 936.004
2.25 945.117 8.54525 936.572
2.26 945.56 8.4112 937.149
2.27 945.874 8.17542 937.698
2.28 946.2 7.95094 938.249
2.29 946.611 7.83706 938.774
2.3 946.948 7.66872 939.279
2.31 947.188 7.39507 939.793
2.32 947.618 7.30031 940.317
2.33 947.913 7.06566 940.847
2.34 948.295 6.94188 941.353
2.35 948.575 6.72445 941.85
2.36 949.003 6.66845 942.334
2.37 949.297 6.50385 942.793
2.38 949.522 6.29024 943.232
2.39 949.826 6.1899 943.636
2.4 950.005 5.98416 944.021
2.41 950.158 5.73978 944.419
2.42 950.39 5.6019 944.788
2.43 950.568 5.43686 945.131
2.44 950.653 5.19687 945.456
2.45 950.91 5.14345 945.767
2.46 951.09 5.0284 946.061
2.47 951.29 4.94012 946.35
2.48 951.436 4.80963 946.626
2.49 951.463 4.58187 946.881
2.5 951.667 4.53993 947.127
2.51 951.732 4.36122 947.371
2.52 951.841 4.24338 947.598
2.53 952.017 4.20735 947.81
2.54 952.163 4.14541 948.018
2.55 952.19 3.98701 948.203
2.56 952.296 3.91942 948.376
2.57 952.325 3.77909 948.546
2.58 952.413 3.70373 948.709
2.59 952.443 3.58071 948.862
2.6 952.549 3.54458 949.004
2.61 952.615 3.47669 949.138
2.62 952.638 3.38191 949.257
2.63 952.665 3.29162 949.373
2.64 952.658 3.16566 949.492
2.65 952.669 3.06044 949.609
2.66 952.702 2.97466 949.728
2.67 952.745 2.9006 949.845
2.68 952.775 2.82245 949.952
2.69 952.87 2.81581 950.055
2.7 952.955 2.79198 950.163
2.71 953.016 2.73465 950.281
2.72 953.095 2.69003 950.405
2.73 953.168 2.63584 950.532
2.74 953.229 2.57407 950.655
2.75 953.288 2.50978 950.778
2.76 953.413 2.51694 950.896
2.77 953.503 2.50232 951.001
2.78 953.575 2.4841 951.09
2.79 953.609 2.44199 951.167
2.8 953.59 2.34538 951.244
2.81 953.571 2.26995 951.301
2.82 953.537 2.19584 951.342
2.83 953.501 2.12991 951.371
2.84 953.524 2.13161 951.392
2.85 953.503 2.08467 951.418
2.86 953.514 2.07034 951.443
2.87 953.475 2.00866 951.466
2.88 953.44 1.95772 951.482
2.89 953.42 1.92776 951.492
2.9 953.383 1.8885 951.494
2.91 953.331 1.8499 951.481
2.92 953.278 1.82322 951.455
2.93 953.226 1.79837 951.428
2.94 953.15 1.75292 951.397
2.95 953.081 1.7255 951.355
2.96 953.001 1.70411 951.297
2.97 952.89 1.66092 951.229
2.98 952.81 1.65023 951.16
2.99 952.717 1.62381 951.093
3 952.63 1.59447 951.035
3.01 952.543 1.5625 950.981
3.02 952.46 1.53412 950.926
3.03 952.396 1.5169 950.879
3.04 952.323 1.48827 950.835
3.05 952.236 1.44252 950.793
3.06 952.163 1.41127 950.752
3.07 952.1 1.39003 950.71
3.08 952.048 1.38664 950.661
3.09 952.001 1.37503 950.626
3.1 951.966 1.36877 950.597
3.11 951.913 1.33965 950.573
3.12 951.851 1.29704 950.554
3.13 951.827 1.27893 950.548
3.14 951.806 1.25814 950.547
3.15 951.805 1.25212 950.553
3.16 951.809 1.24129 950.568
3.17 951.796 1.20991 950.586
3.18 951.817 1.20963 950.607
3.19 951.831 1.20071 950.63
3.2 951.821 1.17311 950.648
3.21 951.821 1.16036 950.661
3.22 951.822 1.14939 950.673
3.23 951.791 1.11052 950.68
3.24 951.775 1.08445 950.691
3.25 951.771 1.06421 950.707
3.26 951.772 1.04424 950.728
3.27 951.789 1.03412 950.755
3.28 951.801 1.0254 950.776
3.29 951.796 1.01242 950.784
3.3 951.786 0.994094 950.792
3.31 951.764 0.958101 950.805
3.32 951.777 0.947885 950.829
3.33 951.79 0.932587 950.857
3.34 951.82 0.935293 950.885
3.35 951.839 0.921828 950.917
3.36 951.859 0.910209 950.949
3.37 951.854 0.875293 950.979
3.38 951.864 0.858191 951.006
3.39 951.871 0.842688 951.029
3.4 951.871 0.823514 951.047
3.41 951.891 0.825848 951.065
3.42 951.89 0.8139 951.076
3.43 951.886 0.798886 951.087
3.44 951.884 0.782699 951.101
3.45 951.877 0.764992 951.112
3.46 951.873 0.763005 951.11
3.47 951.854 0.75479 951.099
3.48 951.839 0.756567 951.083
3.49 951.808 0.749596 951.058
3.5 951.769 0.733457 951.036
3.51 951.736 0.712749 951.023
3.52 951.713 0.696177 951.017
3.53 951.696 0.681675 951.014
3.54 951.704 0.682326 951.022
3.55 951.714 0.674902 951.039
3.56 951.722 0.6589 951.063
3.57 951.736 0.644182 951.092
3.58 951.764 0.640722 951.123
3.59 951.793 0.63589 951.157
3.6 951.813 0.624023 951.189
3.61 951.834 0.613635 951.221
3.62 951.863 0.605604 951.258
3.63 951.88 0.586209 951.293
3.64 951.911 0.585135 951.325
3.65 951.929 0.579498 951.35
3.66 951.941 0.576808 951.364
3.67 951.94 0.56644 951.374
3.68 951.937 0.560316 951.377
3.69 951.912 0.541357 951.37
3.7 951.898 0.533425 951.365
3.71 951.894 0.535889 951.359
3.72 951.894 0.545176 951.348
3.73 951.875 0.542035 951.333
3.74 951.84 0.527898 951.313
3.75 951.803 0.518447 951.285
3.76 951.766 0.514231 951.252
3.77 951.719 0.503832 951.215
3.78 951.678 0.502611 951.176
3.79 951.625 0.491621 951.134
3.8 951.57 0.474993 951.095
3.81 951.519 0.461625 951.057
3.82 951.48 0.460404 951.02
3.83 951.44 0.456781 950.983
3.84 951.399 0.452518 950.946
3.85 951.367 0.45693 950.91
3.86 951.335 0.462433 950.872
3.87 951.29 0.457748 950.832
3.88 951.242 0.447931 950.795
3.89 951.197 0.433097 950.763
3.9 951.153 0.417511 950.736
3.91 951.124 0.418094 950.706
3.92 951.101 0.420606 950.68
3.93 951.077 0.41506 950.662
3.94 951.051 0.405425 950.646
3.95 951.032 0.398204 950.633
3.96 951.02 0.393422 950.627
3.97 951.014 0.390357 950.623
3.98 951.008 0.387082 950.621
3.99 951.006 0.386043 950.62
